#K-Path(1/A)   Spin-Up(eV)   Spin-down(eV)
# NKPTS & NBANDS: 105  38
# Band-Index:    1
   0.00000    -14.677966    -14.677967
   0.03351    -14.674888    -14.674889
   0.06701    -14.665641    -14.665641
   0.10052    -14.650264    -14.650265
   0.13403    -14.628822    -14.628822
   0.16753    -14.601416    -14.601417
   0.20104    -14.568159    -14.568160
   0.23454    -14.529215    -14.529215
   0.26805    -14.484734    -14.484735
   0.30156    -14.434929    -14.434929
   0.33506    -14.380025    -14.380026
   0.36857    -14.320281    -14.320282
   0.40208    -14.255998    -14.255999
   0.43558    -14.187527    -14.187528
   0.46909    -14.115216    -14.115217
   0.50259    -14.039467    -14.039468
   0.53610    -13.960728    -13.960729
   0.56961    -13.879506    -13.879506
   0.60311    -13.796332    -13.796333
   0.63662    -13.711803    -13.711804
   0.67013    -13.626541    -13.626541
   0.70363    -13.541248    -13.541248
   0.73714    -13.456665    -13.456666
   0.77064    -13.373592    -13.373592
   0.80415    -13.292877    -13.292878
   0.83766    -13.215441    -13.215442
   0.87116    -13.142184    -13.142185
   0.90467    -13.074067    -13.074068
   0.93818    -13.012042    -13.012043
   0.97168    -12.957058    -12.957059
   1.00519    -12.909996    -12.909996
   1.03869    -12.871648    -12.871649
   1.07220    -12.842693    -12.842693
   1.10571    -12.823662    -12.823662
   1.13921    -12.814994    -12.814995
   1.13921    -12.814994    -12.814995
   1.15856    -12.814530    -12.814531
   1.17790    -12.813146    -12.813146
   1.19725    -12.810847    -12.810848
   1.21659    -12.807646    -12.807647
   1.23594    -12.803558    -12.803559
   1.25528    -12.798607    -12.798608
   1.27463    -12.792821    -12.792822
   1.29397    -12.786229    -12.786230
   1.31332    -12.778869    -12.778869
   1.33266    -12.770782    -12.770782
   1.35201    -12.762015    -12.762016
   1.37135    -12.752619    -12.752620
   1.39070    -12.742649    -12.742649
   1.41004    -12.732164    -12.732165
   1.42939    -12.721233    -12.721233
   1.44873    -12.709921    -12.709922
   1.46807    -12.698307    -12.698308
   1.48742    -12.686470    -12.686470
   1.50676    -12.674493    -12.674493
   1.52611    -12.662464    -12.662464
   1.54545    -12.650474    -12.650475
   1.56480    -12.638620    -12.638620
   1.58414    -12.627004    -12.627004
   1.60349    -12.615724    -12.615725
   1.62283    -12.604897    -12.604898
   1.64218    -12.594626    -12.594627
   1.66152    -12.585028    -12.585028
   1.68087    -12.576219    -12.576219
   1.70021    -12.568312    -12.568313
   1.71956    -12.561428    -12.561428
   1.73890    -12.555684    -12.555685
   1.75825    -12.551201    -12.551202
   1.77759    -12.548098    -12.548098
   1.79694    -12.546529    -12.546530
   1.79694    -12.546529    -12.546530
   1.83563    -12.553149    -12.553149
   1.87432    -12.567280    -12.567280
   1.91301    -12.589424    -12.589424
   1.95170    -12.620035    -12.620036
   1.99039    -12.659380    -12.659381
   2.02908    -12.707514    -12.707514
   2.06776    -12.764278    -12.764279
   2.10645    -12.829301    -12.829302
   2.14514    -12.902019    -12.902019
   2.18383    -12.981699    -12.981700
   2.22252    -13.067467    -13.067467
   2.26121    -13.158329    -13.158330
   2.29990    -13.253270    -13.253270
   2.33859    -13.351245    -13.351246
   2.37728    -13.451190    -13.451190
   2.41597    -13.552063    -13.552063
   2.45466    -13.652873    -13.652874
   2.49335    -13.752679    -13.752679
   2.53204    -13.850602    -13.850602
   2.57073    -13.945827    -13.945828
   2.60942    -14.037593    -14.037594
   2.64811    -14.125192    -14.125193
   2.68680    -14.208001    -14.208002
   2.72549    -14.285451    -14.285451
   2.76418    -14.357037    -14.357038
   2.80287    -14.422282    -14.422282
   2.84156    -14.480780    -14.480781
   2.88025    -14.532187    -14.532187
   2.91894    -14.576192    -14.576193
   2.95763    -14.612558    -14.612559
   2.99632    -14.641061    -14.641061
   3.03501    -14.661535    -14.661535
   3.07370    -14.673860    -14.673861
   3.11239    -14.677966    -14.677967
 
# Band-Index:    2
   3.11239    -14.578634    -14.578635
   3.07370    -14.574552    -14.574553
   3.03501    -14.562332    -14.562332
   2.99632    -14.542046    -14.542047
   2.95763    -14.513817    -14.513818
   2.91894    -14.477813    -14.477814
   2.88025    -14.434248    -14.434248
   2.84156    -14.383404    -14.383405
   2.80287    -14.325589    -14.325590
   2.76418    -14.261175    -14.261175
   2.72549    -14.190584    -14.190584
   2.68680    -14.114291    -14.114291
   2.64811    -14.032838    -14.032838
   2.60942    -13.946821    -13.946822
   2.57073    -13.856905    -13.856906
   2.53204    -13.763784    -13.763785
   2.49335    -13.668245    -13.668246
   2.45466    -13.571131    -13.571132
   2.41597    -13.473335    -13.473336
   2.37728    -13.375815    -13.375816
   2.33859    -13.279586    -13.279586
   2.29990    -13.185668    -13.185669
   2.26121    -13.095098    -13.095098
   2.22252    -13.008913    -13.008914
   2.18383    -12.928124    -12.928124
   2.14514    -12.853639    -12.853640
   2.10645    -12.786280    -12.786281
   2.06776    -12.726719    -12.726720
   2.02908    -12.675480    -12.675480
   1.99039    -12.632873    -12.632874
   1.95170    -12.599022    -12.599023
   1.91301    -12.573861    -12.573861
   1.87432    -12.557078    -12.557079
   1.83563    -12.548181    -12.548182
   1.79694    -12.546439    -12.546440
   1.79694    -12.546439    -12.546440
   1.77759    -12.547913    -12.547913
   1.75825    -12.551012    -12.551013
   1.73890    -12.555493    -12.555494
   1.71956    -12.561235    -12.561236
   1.70021    -12.568118    -12.568119
   1.68087    -12.576024    -12.576025
   1.66152    -12.584832    -12.584833
   1.64218    -12.594430    -12.594431
   1.62283    -12.604700    -12.604701
   1.60349    -12.615527    -12.615528
   1.58414    -12.626806    -12.626807
   1.56480    -12.638422    -12.638423
   1.54545    -12.650276    -12.650277
   1.52611    -12.662265    -12.662266
   1.50676    -12.674294    -12.674295
   1.48742    -12.686271    -12.686272
   1.46807    -12.698108    -12.698109
   1.44873    -12.709722    -12.709723
   1.42939    -12.721034    -12.721034
   1.41004    -12.731965    -12.731966
   1.39070    -12.742450    -12.742450
   1.37135    -12.752420    -12.752420
   1.35201    -12.761816    -12.761817
   1.33266    -12.770582    -12.770583
   1.31332    -12.778670    -12.778670
   1.29397    -12.786030    -12.786031
   1.27463    -12.792622    -12.792622
   1.25528    -12.798408    -12.798409
   1.23594    -12.803359    -12.803360
   1.21659    -12.807447    -12.807447
   1.19725    -12.810648    -12.810649
   1.17790    -12.812947    -12.812947
   1.15856    -12.814331    -12.814331
   1.13921    -12.814795    -12.814795
   1.13921    -12.814795    -12.814795
   1.10571    -12.816514    -12.816515
   1.07220    -12.828444    -12.828444
   1.03869    -12.850395    -12.850396
   1.00519    -12.881913    -12.881914
   0.97168    -12.922351    -12.922352
   0.93818    -12.970979    -12.970979
   0.90467    -13.026973    -13.026974
   0.87116    -13.089434    -13.089435
   0.83766    -13.157434    -13.157435
   0.80415    -13.230023    -13.230024
   0.77064    -13.306283    -13.306283
   0.73714    -13.385299    -13.385300
   0.70363    -13.466229    -13.466230
   0.67013    -13.548245    -13.548246
   0.63662    -13.630570    -13.630570
   0.60311    -13.712487    -13.712487
   0.56961    -13.793336    -13.793336
   0.53610    -13.872504    -13.872504
   0.50259    -13.949424    -13.949425
   0.46909    -14.023603    -14.023604
   0.43558    -14.094557    -14.094557
   0.40208    -14.161861    -14.161862
   0.36857    -14.225123    -14.225123
   0.33506    -14.283994    -14.283994
   0.30156    -14.338162    -14.338163
   0.26805    -14.387353    -14.387353
   0.23454    -14.431325    -14.431325
   0.20104    -14.469867    -14.469867
   0.16753    -14.502785    -14.502786
   0.13403    -14.529926    -14.529926
   0.10052    -14.551163    -14.551163
   0.06701    -14.566401    -14.566401
   0.03351    -14.575572    -14.575573
   0.00000    -14.578634    -14.578635
 
# Band-Index:    3
   0.00000    -14.578459    -14.578460
   0.03351    -14.575398    -14.575398
   0.06701    -14.566226    -14.566227
   0.10052    -14.550988    -14.550988
   0.13403    -14.529750    -14.529750
   0.16753    -14.502605    -14.502606
   0.20104    -14.469675    -14.469676
   0.23454    -14.431111    -14.431111
   0.26805    -14.387096    -14.387096
   0.30156    -14.337837    -14.337838
   0.33506    -14.283568    -14.283569
   0.36857    -14.224566    -14.224567
   0.40208    -14.161131    -14.161132
   0.43558    -14.093610    -14.093610
   0.46909    -14.022386    -14.022387
   0.50259    -13.947874    -13.947874
   0.53610    -13.870548    -13.870549
   0.56961    -13.790894    -13.790894
   0.60311    -13.709460    -13.709460
   0.63662    -13.626849    -13.626850
   0.67013    -13.543700    -13.543700
   0.70363    -13.460709    -13.460709
   0.73714    -13.378626    -13.378626
   0.77064    -13.298265    -13.298265
   0.80415    -13.220448    -13.220448
   0.83766    -13.146061    -13.146062
   0.87116    -13.076005    -13.076006
   0.90467    -13.011202    -13.011202
   0.93818    -12.952572    -12.952573
   0.97168    -12.901045    -12.901045
   1.00519    -12.857452    -12.857452
   1.03869    -12.822575    -12.822576
   1.07220    -12.797109    -12.797110
   1.10571    -12.781588    -12.781589
   1.13921    -12.776374    -12.776375
   1.13921    -12.776374    -12.776375
   1.15856    -12.775935    -12.775935
   1.17790    -12.774629    -12.774630
   1.19725    -12.772462    -12.772462
   1.21659    -12.769446    -12.769446
   1.23594    -12.765600    -12.765600
   1.25528    -12.760942    -12.760942
   1.27463    -12.755504    -12.755505
   1.29397    -12.749317    -12.749317
   1.31332    -12.742419    -12.742419
   1.33266    -12.734858    -12.734858
   1.35201    -12.726680    -12.726680
   1.37135    -12.717937    -12.717938
   1.39070    -12.708687    -12.708688
   1.41004    -12.698990    -12.698991
   1.42939    -12.688915    -12.688916
   1.44873    -12.678536    -12.678537
   1.46807    -12.667928    -12.667929
   1.48742    -12.657177    -12.657178
   1.50676    -12.646366    -12.646367
   1.52611    -12.635588    -12.635588
   1.54545    -12.624933    -12.624933
   1.56480    -12.614501    -12.614501
   1.58414    -12.604398    -12.604399
   1.60349    -12.594725    -12.594726
   1.62283    -12.585593    -12.585594
   1.64218    -12.577111    -12.577111
   1.66152    -12.569390    -12.569390
   1.68087    -12.562548    -12.562548
   1.70021    -12.556696    -12.556696
   1.71956    -12.551955    -12.551956
   1.73890    -12.548443    -12.548443
   1.75825    -12.546275    -12.546275
   1.77759    -12.545552    -12.545553
   1.79694    -12.546212    -12.546213
   1.79694    -12.546212    -12.546213
   1.83563    -12.547994    -12.547994
   1.87432    -12.556896    -12.556897
   1.91301    -12.573683    -12.573684
   1.95170    -12.598849    -12.598850
   1.99039    -12.632703    -12.632704
   2.02908    -12.675313    -12.675313
   2.06776    -12.726554    -12.726555
   2.10645    -12.786116    -12.786116
   2.14514    -12.853475    -12.853476
   2.18383    -12.927960    -12.927960
   2.22252    -13.008749    -13.008749
   2.26121    -13.094933    -13.094933
   2.29990    -13.185502    -13.185503
   2.33859    -13.279419    -13.279420
   2.37728    -13.375648    -13.375648
   2.41597    -13.473167    -13.473168
   2.45466    -13.570962    -13.570963
   2.49335    -13.668076    -13.668076
   2.53204    -13.763614    -13.763615
   2.57073    -13.856734    -13.856735
   2.60942    -13.946650    -13.946650
   2.64811    -14.032666    -14.032666
   2.68680    -14.114118    -14.114119
   2.72549    -14.190411    -14.190411
   2.76418    -14.261002    -14.261002
   2.80287    -14.325416    -14.325416
   2.84156    -14.383230    -14.383231
   2.88025    -14.434074    -14.434074
   2.91894    -14.477639    -14.477639
   2.95763    -14.513643    -14.513644
   2.99632    -14.541872    -14.541872
   3.03501    -14.562157    -14.562158
   3.07370    -14.574378    -14.574378
   3.11239    -14.578459    -14.578460
 
# Band-Index:    4
   3.11239    -13.452509    -13.452509
   3.07370    -13.450462    -13.450462
   3.03501    -13.444333    -13.444334
   2.99632    -13.434160    -13.434161
   2.95763    -13.420006    -13.420006
   2.91894    -13.401959    -13.401959
   2.88025    -13.380128    -13.380129
   2.84156    -13.354658    -13.354659
   2.80287    -13.325706    -13.325706
   2.76418    -13.293459    -13.293459
   2.72549    -13.258130    -13.258131
   2.68680    -13.219959    -13.219959
   2.64811    -13.179207    -13.179207
   2.60942    -13.136173    -13.136174
   2.57073    -13.091177    -13.091178
   2.53204    -13.044538    -13.044539
   2.49335    -12.996626    -12.996626
   2.45466    -12.947829    -12.947829
   2.41597    -12.898555    -12.898556
   2.37728    -12.849238    -12.849238
   2.33859    -12.800334    -12.800334
   2.29990    -12.752305    -12.752305
   2.26121    -12.705611    -12.705612
   2.22252    -12.660740    -12.660740
   2.18383    -12.618168    -12.618168
   2.14514    -12.578352    -12.578352
   2.10645    -12.541726    -12.541726
   2.06776    -12.508679    -12.508679
   2.02908    -12.479527    -12.479528
   1.99039    -12.454514    -12.454514
   1.95170    -12.433792    -12.433792
   1.91301    -12.417427    -12.417428
   1.87432    -12.405391    -12.405392
   1.83563    -12.397586    -12.397587
   1.79694    -12.393861    -12.393862
   1.79694    -12.393861    -12.393862
   1.77759    -12.395997    -12.395998
   1.75825    -12.399097    -12.399098
   1.73890    -12.402997    -12.402998
   1.71956    -12.407640    -12.407641
   1.70021    -12.412965    -12.412965
   1.68087    -12.418912    -12.418913
   1.66152    -12.425420    -12.425420
   1.64218    -12.432425    -12.432426
   1.62283    -12.439857    -12.439858
   1.60349    -12.447651    -12.447652
   1.58414    -12.455747    -12.455747
   1.56480    -12.464070    -12.464070
   1.54545    -12.472549    -12.472550
   1.52611    -12.481128    -12.481129
   1.50676    -12.489734    -12.489735
   1.48742    -12.498307    -12.498307
   1.46807    -12.506783    -12.506784
   1.44873    -12.515108    -12.515109
   1.42939    -12.523223    -12.523224
   1.41004    -12.531075    -12.531076
   1.39070    -12.538616    -12.538616
   1.37135    -12.545791    -12.545791
   1.35201    -12.552562    -12.552562
   1.33266    -12.558883    -12.558884
   1.31332    -12.564723    -12.564724
   1.29397    -12.570041    -12.570042
   1.27463    -12.574806    -12.574806
   1.25528    -12.578989    -12.578989
   1.23594    -12.582570    -12.582570
   1.21659    -12.585524    -12.585524
   1.19725    -12.587838    -12.587839
   1.17790    -12.589502    -12.589503
   1.15856    -12.590505    -12.590505
   1.13921    -12.590840    -12.590841
   1.13921    -12.590840    -12.590841
   1.10571    -12.593008    -12.593009
   1.07220    -12.599503    -12.599503
   1.03869    -12.610281    -12.610282
   1.00519    -12.625254    -12.625254
   0.97168    -12.644261    -12.644261
   0.93818    -12.667061    -12.667061
   0.90467    -12.693340    -12.693341
   0.87116    -12.722750    -12.722750
   0.83766    -12.754904    -12.754905
   0.80415    -12.789398    -12.789398
   0.77064    -12.825815    -12.825815
   0.73714    -12.863741    -12.863742
   0.70363    -12.902777    -12.902778
   0.67013    -12.942509    -12.942510
   0.63662    -12.982564    -12.982565
   0.60311    -13.022573    -13.022574
   0.56961    -13.062204    -13.062205
   0.53610    -13.101139    -13.101139
   0.50259    -13.139075    -13.139076
   0.46909    -13.175759    -13.175759
   0.43558    -13.210927    -13.210928
   0.40208    -13.244352    -13.244352
   0.36857    -13.275822    -13.275823
   0.33506    -13.305153    -13.305154
   0.30156    -13.332175    -13.332175
   0.26805    -13.356740    -13.356740
   0.23454    -13.378719    -13.378719
   0.20104    -13.398000    -13.398000
   0.16753    -13.414483    -13.414483
   0.13403    -13.428083    -13.428084
   0.10052    -13.438731    -13.438732
   0.06701    -13.446374    -13.446374
   0.03351    -13.450974    -13.450974
   0.00000    -13.452509    -13.452509
 
# Band-Index:    5
   0.00000    -13.452339    -13.452340
   0.03351    -13.450804    -13.450805
   0.06701    -13.446204    -13.446205
   0.10052    -13.438561    -13.438562
   0.13403    -13.427909    -13.427909
   0.16753    -13.414297    -13.414297
   0.20104    -13.397783    -13.397783
   0.23454    -13.378439    -13.378440
   0.26805    -13.356363    -13.356364
   0.30156    -13.331659    -13.331660
   0.33506    -13.304452    -13.304452
   0.36857    -13.274888    -13.274888
   0.40208    -13.243128    -13.243129
   0.43558    -13.209350    -13.209351
   0.46909    -13.173755    -13.173756
   0.50259    -13.136568    -13.136568
   0.53610    -13.098029    -13.098029
   0.56961    -13.058383    -13.058384
   0.60311    -13.017927    -13.017927
   0.63662    -12.976960    -12.976960
   0.67013    -12.935798    -12.935799
   0.70363    -12.894793    -12.894794
   0.73714    -12.854305    -12.854306
   0.77064    -12.814727    -12.814728
   0.80415    -12.776440    -12.776441
   0.83766    -12.739836    -12.739837
   0.87116    -12.705321    -12.705321
   0.90467    -12.673289    -12.673290
   0.93818    -12.644122    -12.644123
   0.97168    -12.618173    -12.618173
   1.00519    -12.595780    -12.595780
   1.03869    -12.577216    -12.577217
   1.07220    -12.562686    -12.562687
   1.10571    -12.552347    -12.552348
   1.13921    -12.546374    -12.546374
   1.13921    -12.546374    -12.546374
   1.15856    -12.546070    -12.546071
   1.17790    -12.545166    -12.545166
   1.19725    -12.543665    -12.543666
   1.21659    -12.541578    -12.541579
   1.23594    -12.538920    -12.538920
   1.25528    -12.535704    -12.535705
   1.27463    -12.531954    -12.531954
   1.29397    -12.527694    -12.527695
   1.31332    -12.522951    -12.522952
   1.33266    -12.517759    -12.517760
   1.35201    -12.512161    -12.512161
   1.37135    -12.506188    -12.506188
   1.39070    -12.499885    -12.499886
   1.41004    -12.493303    -12.493303
   1.42939    -12.486487    -12.486487
   1.44873    -12.479490    -12.479491
   1.46807    -12.472370    -12.472371
   1.48742    -12.465188    -12.465188
   1.50676    -12.457996    -12.457997
   1.52611    -12.450862    -12.450863
   1.54545    -12.443851    -12.443852
   1.56480    -12.437031    -12.437032
   1.58414    -12.430465    -12.430465
   1.60349    -12.424221    -12.424222
   1.62283    -12.418374    -12.418375
   1.64218    -12.412984    -12.412985
   1.66152    -12.408121    -12.408121
   1.68087    -12.403848    -12.403849
   1.70021    -12.400226    -12.400227
   1.71956    -12.397313    -12.397314
   1.73890    -12.395165    -12.395166
   1.75825    -12.393834    -12.393835
   1.77759    -12.393371    -12.393372
   1.79694    -12.393770    -12.393770
   1.79694    -12.393770    -12.393770
   1.83563    -12.397406    -12.397406
   1.87432    -12.405213    -12.405214
   1.91301    -12.417254    -12.417254
   1.95170    -12.433622    -12.433623
   1.99039    -12.454347    -12.454348
   2.02908    -12.479363    -12.479364
   2.06776    -12.508516    -12.508517
   2.10645    -12.541564    -12.541565
   2.14514    -12.578190    -12.578191
   2.18383    -12.618006    -12.618007
   2.22252    -12.660578    -12.660578
   2.26121    -12.705449    -12.705449
   2.29990    -12.752141    -12.752142
   2.33859    -12.800170    -12.800170
   2.37728    -12.849073    -12.849074
   2.41597    -12.898390    -12.898390
   2.45466    -12.947663    -12.947663
